/* DESCRIPTION:
Reference:	Voelker, AHL; de Abreu, L (2011): A Review of Abrupt Climate Change Events in the Northeastern Atlantic Ocean (Iberian Margin): Latitudinal, Longitudinal and Vertical Gradients. In: Rashid, H; Polyak, L; Mosley-Thompson, E (eds.), Abrupt Climate Change: Mechanisms, Patterns, and Impacts. Geophysical Monograph Series (AGU, Washington D.C.), 193, 15-37, https://doi.org/10.1029/2010GM001021
Data from:	https://doi.org/10.1594/PANGAEA.737142. Accessed 11 Nov 2022.
Comment:	Summer SST is SST for months 7-9.
	Several variables from the original dataset are not included here.
*/
Depth [m]	Age [ka BP]	PO4 [%] (Modern analog technique (MAT)...)	summer SST [°C] (Modern analog technique (MAT)...)
0.02	0.176	13.8	18.7
0.05	0.441	13.2	18.7
0.08	0.705	13.4	18.3
0.11	0.97	13.2	18.4
0.14	1.234	13.6	18.3
0.17	1.498	12.2	18.7
0.2	1.763	14.2	19
0.23	2.027	13.8	18.9
0.26	2.292	13.3	18.6
0.29	2.556	11.7	18
0.32	2.821	14.5	18.5
0.35	3.085	12.9	18.3
0.38	3.35	14.2	18.8
0.41	3.614	13.9	18.5
0.44	3.878	11.4	18.2
0.47	4.143	13.9	18.5
0.5	4.407	12.2	18.2
0.53	4.672	14	18.7
0.56	4.936	14	18.7
0.59	5.201	11.4	17.9
0.62	5.465	14.1	18.6
0.65	5.729	13.8	18.3
0.68	5.994	12.1	18
0.71	6.258	14.3	18.3
0.74	6.523	10.8	16.7
0.77	6.787	14	19.1
0.8	7.052	13.8	18.3
0.83	7.316	13.5	18.3
0.86	7.58	13.8	18.4
0.89	7.845	12.6	18
0.92	8.109	13.4	18.2
0.95	8.374	13.1	18.2
0.98	8.638	13.6	18.2
1.01	8.903	11.9	17.5
1.04	9.167	12.3	18.3
1.07	9.432	12.5	18.1
1.1	9.696	12.2	18.2
1.13	9.96	13.6	18.4
1.16	10.225	10.9	16.4
1.19	10.489	11.2	17.8
1.22	10.754	14.1	18.8
1.25	11.018	13.5	18.5
1.28	11.283	11.8	18.3
1.31	11.547	11	17.4
1.34	11.7	10.1	17.4
1.37	11.854	15.3	20
1.4	12.007	8.6	17.5
1.43	12.16	9.7	17.2
1.46	12.313	8	16.7
1.49	12.467	9.4	17.7
1.52	12.62	14	19.1
1.55	12.829	10.7	17.3
1.58	13.039	10.6	16.1
1.61	13.248	11.2	17.5
1.64	13.457	11.1	17.5
1.67	13.666	12.5	18.4
1.7	13.876	10.4	16.3
1.73	14.085	10.6	16.2
1.76	14.294	11.3	17.4
1.79	14.503	13.2	18.5
1.82	14.665	6.7	14
1.85	14.732	6.2	9.6
1.88	14.798	7.8	14.5
1.91	14.865	7.4	16.6
1.94	14.931	10.4	17.5
1.97	14.998	8.5	17.2
2	15.064	7.8	14.4
2.03	15.131	10.7	17.9
2.06	15.197	10.1	17.6
2.09	15.264	10	17.8
2.12	15.33	7	14
2.15	15.397	5.2	9.4
2.18	15.463	4.5	9.1
2.21	15.53	3.7	8
2.24	15.588	3.3	7.5
2.27	15.647	3.5	8.3
2.3	15.705	3.5	7.8
2.33	15.763	2.2	6.3
2.36	15.822	2.8	6.7
2.39	15.88	1.5	5.9
2.42	15.947	2.1	6.4
2.48	16.081	1.6	5.7
2.51	16.148	1.4	5.3
2.54	16.215	1.9	6.1
2.57	16.282	1.8	6.3
2.6	16.348	1.7	6.1
2.63	16.415	1.7	6
2.66	16.482	0.7	4.7
2.69	16.549	1.8	6
2.72	16.616	1.7	6.1
2.75	16.683	1.4	5.3
2.78	16.75	1.4	5.3
2.81	16.95	1.6	5.7
2.84	17.07	1.6	5.7
2.87	17.19	1.7	6.1
2.9	17.309	1.5	5.4
2.93	17.429	3.7	8
2.96	17.507	4.5	8.6
2.99	17.585	4.8	9
3.02	17.663	5.3	9.4
3.05	17.741	4.7	8.7
3.08	17.866	7.1	11.2
3.11	17.991	9.4	17.8
3.14	18.116	9.9	17.9
3.17	18.241	11.3	16.1
3.2	18.366	11.3	16.1
3.23	18.491	11.4	16
3.26	18.615	11.1	15.6
3.29	18.74	10.7	15.3
3.32	18.865	11.5	17.4
3.35	18.99	10	14.2
3.38	19.115	10.5	15
3.41	19.24	10.7	15.2
3.44	19.328	12.1	18.1
3.47	19.417	11.2	16.6
3.5	19.505	11.3	16
3.53	19.593	11.1	15.7
3.56	19.682	11.8	17.7
3.59	19.77	11	15.5
3.62	19.858	10.9	15.6
3.65	19.947	11	15.6
3.68	20.035	11.5	16.2
3.71	20.123	11.1	15.8
3.74	20.212	11.5	17.5
3.77	20.3	12.2	18
3.8	20.389	11.3	16.2
3.83	20.478	11.9	17.1
3.86	20.567	11.9	17.5
3.89	20.657	11.2	16.5
3.92	20.746	11.4	16.6
3.95	20.835	12.7	18.3
3.98	20.924	12.5	18.1
4.01	21.013	13.1	18.8
4.04	21.102	11	16.4
4.07	21.191	11	16
4.1	21.281	10.8	15.6
4.13	21.37	10.7	15.6
4.16	21.459	10.6	15.4
4.19	21.548	11.3	16.7
4.22	21.637	10.6	15.6
4.25	21.726	10.4	15.4
4.28	21.815	10.8	15.7
4.31	21.905	9.8	15
4.34	21.994	9.8	14.2
4.37	22.083	10.4	15.1
4.4	22.172	10.2	14.9
4.43	22.261	9.6	14.2
4.46	22.35	10.5	15.3
4.49	22.439	10.3	15
4.52	22.529	10	14.5
4.55	22.618	10.6	15.4
4.58	22.707	9.9	14.5
4.61	22.796	10.7	15.5
4.64	22.885	9.5	14.3
4.67	22.974	9.4	14.1
4.7	23.063	9.3	14.1
4.73	23.153	10.5	15.2
4.76	23.242	9.5	15.5
4.79	23.331	10.2	15.9
4.82	23.42	9	16.9
4.85	23.479	6.1	10.1
4.88	23.538	5.9	10.1
4.91	23.597	4.1	8.3
4.94	23.656	3.3	7.6
4.97	23.715	3.9	8.1
5	23.774	3.1	8
5.03	23.833	3.9	8.1
5.06	23.892	4.9	8.9
5.09	23.95	5.5	9.8
5.12	24.009	4.4	8.6
5.15	24.068	7.5	14.4
5.18	24.127	10	17.8
5.21	24.186	11.6	18.5
5.24	24.245	9.7	16.4
5.27	24.304	11.3	18.5
5.3	24.363	11.3	18
5.33	24.444	11.3	18.3
5.36	24.525	13.7	19.1
5.39	24.607	9.5	16.1
5.42	24.688	10	18
5.45	24.769	8.3	15.4
5.48	24.85	9.6	17.5
5.51	24.932	9.8	17.8
5.54	25.013	11.2	18.3
5.57	25.094	6.6	10.2
5.6	25.175	10.8	18.5
5.63	25.256	7.5	15.2
5.66	25.338	7.3	15
5.69	25.419	5.8	9.8
5.72	25.5	6.5	11.1
5.75	25.7	4.4	8.9
5.78	25.744	4.6	9
5.81	25.787	6.2	9.8
5.84	25.831	6.2	9.8
5.87	25.875	6	9.8
5.9	25.918	6.5	10.2
5.93	25.962	6.5	10
5.96	26.005	6.8	10.5
5.99	26.049	9.5	16
6.02	26.093	8.4	15.4
6.05	26.136	8.5	12.5
6.08	26.18	8.6	12.7
6.11	26.397	8.4	12.2
6.14	26.614	9.5	14.1
6.17	26.831	12.2	18
6.2	27.048	9.5	16.1
6.23	27.265	9.2	15.9
6.26	27.482	9.3	16
6.29	27.698	8.7	17.5
6.32	27.915	11.1	16.9
6.35	28.132	11.3	18.2
6.38	28.349	8.8	15.6
6.41	28.566	10.9	18
6.44	28.783	11.8	18.4
6.47	29	10.5	17.8
6.5	29.045	5.5	9.8
6.53	29.09	4.9	9.2
6.56	29.136	7.1	14.4
6.59	29.181	5.7	9.7
6.62	29.226	6.8	11.2
6.65	29.271	6.5	11.1
6.68	29.316	6.6	11.2
6.71	29.361	5.5	9.6
6.74	29.407	5.8	9.8
6.77	29.452	6.1	9.5
6.8	29.497	7.4	14.3
6.83	29.542	5.8	13.4
6.86	29.587	4.9	8.9
6.89	29.633	4.3	8.2
6.92	29.678	4.5	8.5
6.95	29.723	4.5	8.6
6.98	29.768	3.9	7.7
7.01	29.813	3.9	7.7
7.04	29.859	3.9	8.2
7.07	29.904	3.3	7.6
7.1	29.949	3.3	7.6
7.13	29.994	3.6	7.6
7.16	30.039	4.2	8.3
7.19	30.084	2.4	6.1
7.22	30.13	2.5	6.8
7.25	30.175	3.9	7.9
7.28	30.22	7.7	16.7
7.31	30.39	7.8	16.7
7.34	30.559	10.3	18
7.37	30.729	8.3	16.8
7.4	30.898	9.4	17.8
7.43	31.068	11	17.3
7.46	31.237	9.2	17.9
7.48	31.35	12.1	17.8
7.51	31.52	8.7	17
7.54	31.96	10.7	17.5
7.57	32.4	8.2	15.8
7.6	32.84	8.3	15.8
7.63	33.28	10.4	18
7.66	33.72	6.2	9.6
7.69	33.91	10.7	18.1
7.72	34.1	9.1	16.5
7.75	34.29	12.7	19.2
7.78	34.48	7.5	15.2
7.82	34.582	11.9	18.4
7.85	34.658	14.3	20
7.88	34.734	8	15.7
7.91	34.81	10.6	18.2
7.94	34.887	12.9	18.5
7.97	34.963	9.1	16.4
8	35.039	9.9	17.9
8.03	35.115	6.5	10
8.06	35.191	11.5	18
8.09	35.268	10.1	17.9
8.12	35.344	8.2	15.7
8.15	35.42	6.8	14
8.18	35.73	6.3	10.9
8.21	35.96	6.8	14.4
8.24	36.19	7.4	14.4
8.27	36.42	5.7	13.3
8.3	36.65	7	11
8.33	36.88	7.6	11.7
8.36	37.026	9.4	16.1
8.39	37.172	6.6	10.1
8.42	37.319	9.8	14.9
8.45	37.465	6.5	10.1
8.48	37.612	8.5	12.5
8.51	37.758	6.6	10.1
8.54	37.904	6.3	9.9
8.57	38.051	6.3	10.2
8.6	38.197	7.5	14.3
8.63	38.344	3.9	7.7
8.66	38.49	2.7	7.1
8.69	38.668	3.3	7.6
8.72	38.846	2.7	7.1
8.75	39.024	2	6.5
8.78	39.201	2.3	6.8
8.81	39.379	3.6	7.6
8.84	39.513	3.9	7.7
8.87	39.647	4	8.1
8.9	39.782	3.9	7.7
8.93	39.916	6.7	14.3
8.96	40.05	7.6	12.1
8.98	40.14	13	19.1
9.02	40.327	13.6	19.1
9.05	40.467	13.5	19.3
9.08	40.607	13.9	18.7
9.11	40.747	13.7	18.8
9.14	40.887	12.9	18.5
9.17	41.027	9.3	18.2
9.2	41.167	8.1	17.4
9.22	41.26	8.9	17.6
9.25	41.4	7.1	16.7
9.28	41.54	6.2	9.7
9.32	41.733	7.6	14.6
9.35	41.877	12.9	19.1
9.38	42.022	10	16.3
9.41	42.166	10	15.2
9.44	42.311	6.5	10
9.47	42.455	14.1	19
9.5	42.6	7.4	14.3
9.53	42.708	10.1	16.5
9.56	42.816	13.6	18.8
9.59	42.924	13.2	18.7
9.62	43.032	8.9	17.1
9.65	43.14	7.2	11.3
9.68	43.376	14.4	19.2
9.71	43.612	7.1	14.2
9.74	43.848	10.9	15.9
9.77	44.084	12.2	18
9.8	44.32	10.7	16.8
9.83	44.556	12.7	18.5
9.86	44.792	14.2	19
9.89	45.028	10.2	16.6
9.92	45.264	7.8	11.5
9.95	45.5	5.6	9.7
9.98	45.83	4.5	9
10.01	46.16	5.1	9.4
10.04	46.244	5.8	9.8
10.07	46.329	3.9	8.1
10.1	46.413	3.1	7.3
10.13	46.498	2.2	6.5
10.16	46.582	3.3	7.5
10.19	46.667	4.9	9
10.22	46.751	6	9.4
10.25	46.836	6.9	10.4
10.28	46.92	9	13.8
10.31	47.282	9.7	14.6
10.34	47.644	7.5	16.6
10.37	48.005	9.9	14.6
10.4	48.367	12.4	18.5
10.43	48.728	13.2	18.7
10.46	49.09	13.1	18.8
10.49	49.41	10.2	16.6
10.52	49.73	11.1	16.7
10.55	50.05	8.1	12.5
10.58	50.369	9.5	14.9
10.61	50.689	8.1	13.2
10.64	51.009	8.1	13.2
10.67	51.291	7.6	12.5
10.7	51.573	8.4	13.4
10.73	51.856	8.5	13.5
10.76	52.138	7.4	11.2
10.79	52.42	6.3	9.8
10.82	52.927	6.3	9.9
10.85	53.434	6.2	9.8
10.88	53.94	5.5	9.8
10.91	54.447	6.3	9.9
10.94	54.953	6.9	11
10.97	55.46	9	15.1
11	55.671	11.4	17.3
11.03	55.883	11.3	18.2
11.06	56.094	10.6	16.9
11.09	56.306	7.1	10.8
11.12	56.517	10.4	16.8
11.15	56.729	7.5	11.8
11.18	56.94	6.5	10
11.21	57.4	6.3	9.9
11.24	57.86	6.3	9.8
11.27	58.32	6.8	14.1
11.3	58.544	6.3	10.2
11.33	58.768	5.3	9.6
11.36	58.992	4.3	8.5
11.39	59.216	4.3	8.9
11.42	59.44	1.7	6.1
11.45	59.61	3.1	7.3
11.48	59.78	3.7	8
11.51	59.949	2.1	6.1
11.54	60.119	2	6.3
11.57	60.289	3.6	7.8
11.6	60.458	2.1	6.1
11.63	60.628	1.6	5.7
11.66	60.78	3.1	7.3
11.69	60.932	1.5	5.4
11.72	61.084	1.8	6.4
11.75	61.236	3.5	7.5
11.78	61.388	5.1	9.2
11.81	61.54	5.2	9.1
11.84	61.692	9.1	17
11.87	61.844	6.6	10.2
11.9	61.996	7.3	16.4
11.93	62.148	7.4	16.5
11.96	62.3	5.8	9.8
11.98	62.442	6	13.5
12.02	62.725	6.3	9.8
12.05	62.938	4.8	9
12.08	63.15	6.3	9.8
12.11	63.363	9	17.6
12.14	63.575	8	16.8
12.17	63.788	8	11.5
12.2	64	9.4	16.6
12.23	64.295	8.2	12.3
12.26	64.591	7.9	12.1
12.29	64.886	9	14
12.32	65.182	9.4	14.2
12.35	65.477	9.7	15.2
12.38	65.773	10.3	15.4
12.41	66.068	11	16
12.44	66.364	10	14.8
12.47	66.659	11.3	16.1
12.5	66.955	11	16.1
12.53	67.25	10.8	16.4
12.56	68.1	9.5	17.7
12.59	68.95	7.6	14.4
12.62	69.8	12.1	17.7
12.65	70.442	13	18.2
12.68	71.084	9	16.4
12.71	71.725	12.3	18.5
12.74	72.367	11.1	17.2
12.77	73.008	9.5	17.9
12.8	73.65	8	16.2
12.83	74.243	8.9	15.7
12.86	74.835	9.1	13.6
12.89	75.428	9.5	15.9
12.92	76.02	11	15.7
12.95	76.613	11.2	17.1
12.98	77.205	9.8	16.2
13.01	77.798	13.1	19
13.04	78.39	9.7	16.2
13.07	78.983	9.6	17.7
13.1	79.575	10.7	17.1
13.13	80.168	10.7	18.3
13.16	80.76	10.4	18
13.19	81.353	9	15.7
13.22	81.838	12	19
13.25	82.324	7.3	11
13.28	82.809	8.1	15.4
13.31	83.294	8.5	17.5
13.34	83.78	7.2	16.8
13.37	84.265	4.8	9.2
13.4	84.75	3.6	7.6
13.43	85.236	1.6	5.7
13.46	85.721	4.2	8.5
13.49	86.317	4.4	9
13.52	86.912	4.2	8.5
13.55	87.508	9.1	15.8
13.58	88.103	13.7	19.3
13.61	88.699	10.3	16.6
13.64	89.294	12.3	18.6
13.67	89.89	10.4	16
13.7	90.486	9.1	14.3
13.73	91.081	10.2	15.2
13.76	91.677	9.3	14.7
13.79	92.272	9.7	14.8
13.82	92.868	10.7	15.4
13.85	93.463	10.1	15.4
13.88	94.059	10	15.2
13.91	94.655	9	14
13.94	95.25	9.5	14.9
13.97	95.846	9.6	14.7
14	96.441	9.6	14.5
14.03	97.037	9.8	15
14.06	97.632	9.7	14.6
14.09	98.228	10	14.9
14.12	98.823	10.6	16.8
14.15	99.419	12.2	17.9
14.18	100.015	12.9	18.9
14.21	100.61	12.8	18.7
14.24	101.206	11.4	17.3
14.27	101.801	12.4	18.1
14.3	102.397	13	18.7
14.33	102.992	12.5	18.5
14.36	103.588	10.2	17.1
14.39	104.048	13	18.8
14.42	104.507	12.6	18.7
14.45	104.967	12.9	18.5
14.48	105.427	12	17.7
14.51	105.886	10.8	16.9
14.54	106.346	10	16.4
14.57	106.806	13.5	18.6
14.6	107.265	12.4	18.8
14.63	107.725	8.8	17.1
14.66	108.352	8.5	15.5
14.69	108.979	8.8	15.6
14.72	109.606	9	15.7
14.75	110.233	10.3	18.2
14.78	110.86	8.8	15.6
14.81	111.487	8.8	15.6
14.84	112.113	10.4	16.6
14.87	112.74	9.9	14.9
14.9	113.367	11.2	17.8
14.93	113.994	11.2	17
14.96	114.621	12.6	17.9
14.99	115.248	11.8	16.6
15.02	116.237	14.4	19.6
15.05	117.226	12.8	18
15.08	118.215	13.2	18.7
15.11	119.204	11.4	17.9
15.14	120.193	12.3	18.1
15.17	121.182	13.5	18.3
15.2	122.171	13.5	18.3
15.23	123.16	13	18.7
15.26	124.148	14.2	18.9
15.29	125.137	12.1	17.9
15.32	126.126	12.3	17.7
15.35	127.115	12.5	17.8
15.38	128.104	13.7	18.7
15.41	129.093	9.7	17.7
15.44	130.082	4.2	8.1
15.47	131.071	4	8
15.5	131.613	5.2	13.1
15.53	132.156	6.9	14.4
15.56	132.698	6.4	9.9
15.59	133.24	5.8	9.5
15.62	133.782	7.6	16.7
15.65	134.325	6.9	15.9
15.68	134.867	5.9	9.3
15.71	135.35	8.8	15.1
15.74	135.833	9.8	14.7
15.77	136.315	10.5	15.4
15.8	136.798	10.3	15.1
15.83	137.217	10.4	15.4
15.86	137.636	10.7	16.2
15.89	138.055	10.6	15.4
15.92	138.474	10.5	15.5
15.95	138.893	10.2	15
15.98	139.312	10.1	15
16.01	139.731	9.8	14.7
16.04	140.15	9.5	14.5
16.07	140.569	9.6	13.7
16.1	140.988	10.5	15.4
16.13	141.253	10.3	15.2
16.16	141.518	11	16
16.19	141.783	10.5	15.3
16.22	142.048	9.9	14.6
16.25	142.313	10.4	15.6
16.28	142.579	11.4	16.7
16.31	142.844	10.7	15.8
16.34	143.109	9.7	14.4
16.37	143.374	10.2	15.1
16.4	143.639	8.8	13
16.43	143.904	9.9	14.8
16.46	144.176	9.7	14.9
16.49	144.447	9.2	13.8
16.52	144.719	8.3	11.9
16.55	144.991	8.9	15.6
16.58	145.262	8.4	12.2
16.61	145.534	10.3	14.9
16.64	145.806	9	13.6
16.67	146.078	9.7	14.4
16.7	146.349	10.2	14.9
16.73	146.621	9.3	14.5
16.76	146.893	10.6	16.3
16.79	147.164	6.9	10.6
16.82	147.436	10.1	14.9
16.85	147.708	7.6	13.6
16.88	147.979	6.9	10.6
16.91	148.251	9.9	17.4
16.94	148.523	12.5	18
16.97	148.794	10.5	15.3
17	149.066	10.3	16.2
17.03	149.338	11.1	16.5
17.06	149.609	8.4	17
17.09	149.881	9.9	16.2
17.12	150.153	7.5	16.6
17.15	150.425	6	9.3
17.18	150.696	13.7	19.1
17.21	150.968	6.4	10.5
17.24	151.24	6.7	10.8
17.27	151.511	10.6	15.6
17.3	151.783	10.6	15.8
17.33	152.318	10.1	15.4
17.36	152.853	10.3	15.5
17.39	153.388	8.6	16.5
17.42	153.923	10	14.7
17.45	154.458	10.3	15.7
17.48	154.993	7.3	14
17.51	155.529	11.1	17.9
17.54	156.064	11	17.2
17.57	156.599	9.4	14.5
17.6	157.134	7.3	11
17.63	157.669	6.2	9.8
17.66	158.204	5.2	9.6
17.69	158.739	8.2	14.3
17.72	158.9	5.1	9.1
17.75	159.061	5	9.2
17.78	159.221	5.6	9.9
17.81	159.382	5.1	9.5
17.84	159.543	6	10.2
17.87	159.704	8	14.8
17.9	159.864	9.5	15.3
17.93	160.025	8.3	13.6
17.96	160.186	6.5	10
17.99	160.347	6.8	10.4
18.02	160.508	4.6	8.8
18.05	160.668	4.2	8.5
18.08	160.829	5.2	9.6
18.11	160.99	3.9	8.5
18.14	161.151	4.4	8.8
18.17	161.311	6.5	10.4
18.2	161.472	6.1	10.4
18.23	161.633	6.3	10.4
18.26	161.854	6	10.3
18.29	162.076	10	17.5
18.32	162.297	11.5	18
18.35	162.518	7.2	13.9
18.38	162.74	6.4	10.8
18.41	162.961	5.3	9.7
18.44	163.182	4.1	8.6
18.47	163.404	11.6	17.6
18.5	163.625	9.7	14.9
18.53	163.846	6.8	10.6
18.56	164.068	7	10.6
18.59	164.289	4.7	9.2
18.62	164.51	7.2	10.9
18.65	164.732	10.7	15.5
18.68	164.953	10.6	15.4
18.71	165.174	8.4	12.8
18.74	165.396	8.1	12.2
18.77	165.617	6.9	10.6
18.8	165.838	5.9	9.7
18.83	166.06	9.6	16.7
18.86	166.281	8	13.3
18.89	166.502	11.5	18
18.92	166.724	5.3	9.7
18.95	166.945	13.4	18.4
18.98	167.166	13	18
19.01	167.388	12.4	17.9
19.04	167.609	11.2	17
19.07	167.83	8.9	15.6
19.13	168.273	6.2	10
19.16	168.652	6.2	9.9
19.19	169.031	6.6	10.4
19.22	169.41	6.8	11.3
19.25	169.788	6.5	10.8
19.28	170.167	6.2	10.4
19.31	170.546	10.9	17.4
19.34	170.925	9.7	15
19.37	171.304	10.5	15.8
19.4	171.683	9.8	15.5
19.43	172.062	9.5	14.7
19.46	172.441	10	16
19.48	172.542	6.8	11.1
19.52	172.746	6.3	9.9
19.55	172.899	7.5	14.1
19.58	173.052	6.7	11.2
19.61	173.205	10.3	15.5
19.64	173.358	9.7	14.6
19.67	173.511	10.2	15.3
19.7	173.664	10	15.3
19.73	173.817	10.4	15.2
19.76	173.97	11	15.9
19.79	174.122	10.8	15.9
19.82	174.275	11.9	17.9
19.85	174.428	9.7	14.9
19.88	174.581	10.1	15.5
19.91	174.734	11	16.6
19.94	174.887	10.9	16
19.97	175.04	9.4	14.6
20	175.193	10.6	15.8
20.03	175.346	8.2	15.6
20.06	175.499	10.6	15.4
20.09	175.651	10.6	15.7
20.12	175.804	12.2	17.7
20.15	175.957	10.1	15.5
20.18	176.11	10.7	15.8
20.21	176.263	11.6	17.6
20.24	176.732	11.2	16.6
20.27	177.2	12.8	19
20.3	177.669	5.7	9.8
20.33	178.138	5.6	13.4
20.36	178.607	8.6	15
20.39	179.075	6.5	10.2
20.42	179.544	9.1	15.3
20.45	180.013	9.8	16
20.48	180.481	10.6	16.3
20.51	180.95	8.4	12.8
20.54	181.419	6.4	10.2
20.57	181.888	7.3	16.6
20.6	182.356	10.5	15.5
20.63	182.825	12.2	17.9
20.66	183.294	8.6	13.3
20.69	183.762	10.7	16.1
20.72	184.231	6.8	10.6
20.75	184.7	6.8	14
20.78	185.169	8.5	17.5
20.81	185.637	7.6	11.7
20.84	186.106	8.5	13.8
20.87	186.575	10.6	15.6
20.9	187.043	10.8	15.8
20.93	187.429	10.7	15.9
20.96	187.815	10.1	15.5
20.98	188.072	10	14.9
21.02	188.586	10.1	15.5
21.05	188.971	10.5	15.3
21.08	189.357	10.6	15.4
21.11	189.743	10.2	15.2
21.14	190.128	9.4	14.3
21.17	190.514	10.2	15.3
21.2	190.9	10.6	15.4
21.23	191.285	11.6	17.6
21.26	191.671	10.6	15.5
21.29	192.056	11.4	17.8
21.32	192.442	10.5	15.7
21.35	192.946	10.1	15.2
21.38	193.45	10.2	15.3
21.41	193.954	11.3	17.4
21.44	194.457	13.7	18.5
21.47	194.961	11.9	17.7
21.5	195.465	11.4	17.5
21.53	195.969	10.6	15.8
21.56	196.473	13.8	18.8
21.59	196.977	13.2	18.5
21.62	197.481	12.5	18.9
21.65	197.985	13.5	19.3
21.68	198.488	15.8	19.2
21.71	198.992	12	18.4
21.74	199.496	10.3	17.8
21.77	200	10.8	16.8
21.8	201	10.6	15.4
21.83	202	14.2	19.2
21.86	203	12	17.8
21.89	204	10.9	15.8
21.92	205	11.1	16.6
21.95	205.441	14.1	19.2
21.98	205.882	11.4	17.5
22.01	206.324	11.1	16.8
22.04	206.765	11.8	17.7
22.1	207.647	11.8	16.5
22.13	208.088	13.6	18.2
22.16	208.529	12.4	17.8
22.19	208.971	12.8	18.3
22.22	209.412	13.5	18.3
22.25	209.853	13.8	18.3
22.28	210.294	14	18.5
22.34	211.176	14.4	19.2
22.37	211.618	13.5	18.6
22.4	212.059	14.1	19
22.43	212.5	13.6	18.7
22.46	212.941	14	19.1
22.49	213.382	14.6	19.2
22.52	213.824	14.1	19.3
22.55	214.265	13.7	19
22.58	214.706	16.1	19.3
22.61	215.147	14	18.9
22.64	215.588	14.9	19.5
22.67	216.029	15.1	19.1
22.7	216.471	13.6	18.9
22.73	216.912	15.1	19
22.76	217.353	12.7	18.7
22.79	217.794	11.7	17.6
22.82	218.235	16.6	20.6
22.85	218.676	6.5	10.2
22.88	219.118	8.8	18.3
22.91	219.559	9.6	18.7
22.94	220	11.5	17.5
22.97	220.25	8.2	16.5
23	220.5	10.5	17.9
23.03	220.75	8.7	18.1
23.06	221	6.1	10.4
23.09	221.25	6	9.3
23.12	221.5	8.1	17.2
23.15	221.75	9.6	17.5
23.18	222	12.7	18.3
23.21	222.25	13	19.5
23.24	222.5	15.5	19.3
23.27	222.75	10.8	17.7
23.3	223	11.8	17.9
23.33	223.778	12.2	18.2
23.36	224.556	15	19
23.39	225.333	12.9	18.3
23.42	226.111	14.1	18.4
23.45	226.889	13.9	18.3
23.48	227.667	14.3	18.6
23.51	228.444	11.2	18.1
23.54	229.222	6.6	10.6
23.58	230.152	13.3	18.5
23.6	230.455	15.7	20.2
23.63	230.909	13.7	18.5
23.66	231.364	13.6	18.4
23.69	231.818	13.6	18.8
23.72	232.273	12.3	18.6
23.75	232.727	11.4	17.3
23.78	233.182	11.7	17.9
23.81	233.636	12.2	18.3
23.84	234.091	13.5	19.5
23.87	234.545	13.4	19
23.9	235	13	18.7
25.53	252.722	10.8	15.8
25.58	253	10.4	15.9
25.61	253.167	10.3	15.4
25.64	253.333	11	16.6
25.67	253.5	11	16.8
25.7	253.667	12.4	18.4
25.73	253.833	10.3	15.1
25.76	254	10.5	16.1
25.79	254.167	9.7	14.9
25.82	254.333	10.6	15.6
25.85	254.5	10.1	15.1
25.88	254.667	10.1	16
25.91	254.833	10.5	15.3
25.94	255	10.7	16
25.97	255.667	9.5	14.7
26	256.333	10.7	16.3
26.03	257	10.4	15.5
26.06	257.256	10.5	15.8
26.09	257.512	10.7	15.9
26.12	257.767	10.1	15.5
26.15	258.023	10.6	15.9
26.18	258.279	10.9	16.2
26.21	258.535	10.2	15.5
26.24	258.791	10.3	16.7
26.27	259.047	10.4	15.9
26.3	259.302	10.2	15.5
26.33	259.558	10.2	15.7
26.36	259.814	6	10.3
26.39	260.07	4.4	9
26.42	260.326	9	13.3
26.45	260.581	7.9	11.5
26.48	260.837	9	15.4
26.51	261.093	16	20.3
26.54	261.349	3.6	7.6
26.57	261.605	2.7	7.4
26.6	261.86	1.8	6
26.63	262.116	1.7	5.8
26.66	262.372	1.6	5.7
26.69	262.628	2	6.3
26.72	262.884	1.7	6
26.75	263.14	2.4	7.1
26.78	263.395	1.3	5.3
26.81	263.651	2.7	7.4
26.84	263.907	3.8	8
26.87	264.163	2.5	6.9
26.9	264.419	3.3	7.5
26.93	264.674	1.7	6.1
26.96	264.93	3.3	8.1
26.98	265.101	9.8	17.1
27.02	265.442	1.1	4.8
27.08	265.953	1	4.8
27.11	266.209	1	4.9
27.14	266.465	0.7	4.7
